#mGo	mLSP	Total	TotGenW	Counts	genWeight
1800	200	32362718	32362718.000	17459	17459.000
600	200	32362718	32362718.000	348350	348350.000
1950	800	32362718	32362718.000	19532	19532.000
1850	1400	32362718	32362718.000	21550	21550.000
2500	1200	32362718	32362718.000	19337	19337.000
1150	450	32362718	32362718.000	100718	100718.000
2250	300	32362718	32362718.000	16859	16859.000
2250	1100	32362718	32362718.000	19058	19058.000
1300	700	32362718	32362718.000	35771	35771.000
1250	300	32362718	32362718.000	49015	49015.000
600	375	32362718	32362718.000	356355	356355.000
1600	100	32362718	32362718.000	18643	18643.000
1050	400	32362718	32362718.000	146849	146849.000
2000	700	32362718	32362718.000	18982	18982.000
1200	850	32362718	32362718.000	64787	64787.000
2100	400	32362718	32362718.000	16935	16935.000
2550	500	32362718	32362718.000	18633	18633.000
2400	0	32362718	32362718.000	17098	17098.000
2050	1600	32362718	32362718.000	23923	23923.000
2100	1300	32362718	32362718.000	20614	20614.000
2200	1450	32362718	32362718.000	16947	16947.000
1950	1450	32362718	32362718.000	19247	19247.000
1150	400	32362718	32362718.000	93099	93099.000
1450	800	32362718	32362718.000	18234	18234.000
2000	1100	32362718	32362718.000	15072	15072.000
1300	750	32362718	32362718.000	36617	36617.000
1350	1125	32362718	32362718.000	27620	27620.000
1850	850	32362718	32362718.000	20130	20130.000
1800	1300	32362718	32362718.000	17601	17601.000
2400	800	32362718	32362718.000	15895	15895.000
1100	800	32362718	32362718.000	123939	123939.000
1900	1050	32362718	32362718.000	20769	20769.000
2700	1100	32362718	32362718.000	18014	18014.000
1850	700	32362718	32362718.000	18143	18143.000
2700	1000	32362718	32362718.000	16396	16396.000
1300	800	32362718	32362718.000	41071	41071.000
2600	1400	32362718	32362718.000	16968	16968.000
2100	1350	32362718	32362718.000	17900	17900.000
900	675	32362718	32362718.000	139531	139531.000
1650	1150	32362718	32362718.000	19065	19065.000
2550	400	32362718	32362718.000	22609	22609.000
1950	1400	32362718	32362718.000	18959	18959.000
1500	600	32362718	32362718.000	19943	19943.000
1600	950	32362718	32362718.000	20434	20434.000
2300	1100	32362718	32362718.000	15705	15705.000
1500	1200	32362718	32362718.000	15198	15198.000
1700	850	32362718	32362718.000	19469	19469.000
950	350	32362718	32362718.000	144016	144016.000
2000	200	32362718	32362718.000	19205	19205.000
2800	100	32362718	32362718.000	18023	18023.000
2100	1150	32362718	32362718.000	15093	15093.000
1650	1350	32362718	32362718.000	18650	18650.000
1100	875	32362718	32362718.000	126661	126661.000
900	600	32362718	32362718.000	135768	135768.000
1300	850	32362718	32362718.000	34552	34552.000
1050	550	32362718	32362718.000	148699	148699.000
1350	600	32362718	32362718.000	26614	26614.000
2000	1350	32362718	32362718.000	20739	20739.000
700	100	32362718	32362718.000	139384	139384.000
1550	900	32362718	32362718.000	17059	17059.000
1150	350	32362718	32362718.000	87822	87822.000
2500	1550	32362718	32362718.000	17936	17936.000
2350	1400	32362718	32362718.000	14322	14322.000
2100	1600	32362718	32362718.000	15315	15315.000
1500	1250	32362718	32362718.000	14833	14833.000
2500	1100	32362718	32362718.000	21598	21598.000
1400	650	32362718	32362718.000	20874	20874.000
1100	450	32362718	32362718.000	126823	126823.000
2300	300	32362718	32362718.000	19339	19339.000
2600	1200	32362718	32362718.000	18490	18490.000
2750	700	32362718	32362718.000	20100	20100.000
2150	1500	32362718	32362718.000	19011	19011.000
1800	800	32362718	32362718.000	19398	19398.000
1550	1000	32362718	32362718.000	19444	19444.000
2550	900	32362718	32362718.000	20364	20364.000
1150	650	32362718	32362718.000	88093	88093.000
2450	700	32362718	32362718.000	18122	18122.000
1450	1050	32362718	32362718.000	17703	17703.000
1950	100	32362718	32362718.000	17889	17889.000
800	200	32362718	32362718.000	148369	148369.000
1550	200	32362718	32362718.000	17962	17962.000
1300	300	32362718	32362718.000	39633	39633.000
2650	1600	32362718	32362718.000	17242	17242.000
1700	900	32362718	32362718.000	16089	16089.000
1900	1350	32362718	32362718.000	20353	20353.000
1200	700	32362718	32362718.000	63524	63524.000
2600	0	32362718	32362718.000	20526	20526.000
1350	950	32362718	32362718.000	31555	31555.000
2050	1200	32362718	32362718.000	18490	18490.000
2100	900	32362718	32362718.000	16961	16961.000
1600	1050	32362718	32362718.000	17279	17279.000
2750	1100	32362718	32362718.000	15354	15354.000
2650	1100	32362718	32362718.000	19819	19819.000
1200	900	32362718	32362718.000	69360	69360.000
2400	1550	32362718	32362718.000	17028	17028.000
2200	700	32362718	32362718.000	18897	18897.000
1300	350	32362718	32362718.000	32069	32069.000
1600	300	32362718	32362718.000	15842	15842.000
1550	800	32362718	32362718.000	18727	18727.000
1600	900	32362718	32362718.000	19679	19679.000
2050	1400	32362718	32362718.000	20767	20767.000
2100	1200	32362718	32362718.000	21982	21982.000
1650	500	32362718	32362718.000	22076	22076.000
900	500	32362718	32362718.000	142267	142267.000
2450	0	32362718	32362718.000	14756	14756.000
1600	600	32362718	32362718.000	16312	16312.000
2150	200	32362718	32362718.000	17911	17911.000
1650	1400	32362718	32362718.000	22086	22086.000
1900	1200	32362718	32362718.000	19664	19664.000
1950	700	32362718	32362718.000	18188	18188.000
1350	450	32362718	32362718.000	26118	26118.000
1800	1400	32362718	32362718.000	17596	17596.000
1700	600	32362718	32362718.000	17897	17897.000
2800	400	32362718	32362718.000	21094	21094.000
1900	1250	32362718	32362718.000	14804	14804.000
1300	600	32362718	32362718.000	34520	34520.000
1250	200	32362718	32362718.000	48184	48184.000
2500	200	32362718	32362718.000	18662	18662.000
1650	1425	32362718	32362718.000	21208	21208.000
2200	100	32362718	32362718.000	21314	21314.000
2650	200	32362718	32362718.000	18299	18299.000
2250	1550	32362718	32362718.000	20301	20301.000
1150	500	32362718	32362718.000	94626	94626.000
2450	1000	32362718	32362718.000	14505	14505.000
1350	400	32362718	32362718.000	26575	26575.000
1450	500	32362718	32362718.000	19838	19838.000
1000	600	32362718	32362718.000	139843	139843.000
1050	500	32362718	32362718.000	158070	158070.000
2300	1450	32362718	32362718.000	20204	20204.000
2250	1400	32362718	32362718.000	20468	20468.000
1750	750	32362718	32362718.000	22969	22969.000
2050	800	32362718	32362718.000	15853	15853.000
2050	1250	32362718	32362718.000	17979	17979.000
2150	1600	32362718	32362718.000	17373	17373.000
1850	600	32362718	32362718.000	18603	18603.000
1600	800	32362718	32362718.000	18645	18645.000
1250	700	32362718	32362718.000	44186	44186.000
1850	1050	32362718	32362718.000	17441	17441.000
2700	0	32362718	32362718.000	13070	13070.000
1900	1150	32362718	32362718.000	19233	19233.000
2300	800	32362718	32362718.000	13735	13735.000
1550	500	32362718	32362718.000	16626	16626.000
750	450	32362718	32362718.000	140490	140490.000
2200	1300	32362718	32362718.000	19390	19390.000
2000	1050	32362718	32362718.000	16658	16658.000
1500	850	32362718	32362718.000	18869	18869.000
2150	1200	32362718	32362718.000	19597	19597.000
1500	1150	32362718	32362718.000	21337	21337.000
2150	900	32362718	32362718.000	15774	15774.000
1450	550	32362718	32362718.000	17038	17038.000
1350	0	32362718	32362718.000	24166	24166.000
1450	850	32362718	32362718.000	21617	21617.000
1550	0	32362718	32362718.000	18745	18745.000
2000	0	32362718	32362718.000	18400	18400.000
1300	100	32362718	32362718.000	32696	32696.000
950	725	32362718	32362718.000	143224	143224.000
1850	1300	32362718	32362718.000	19579	19579.000
1000	400	32362718	32362718.000	133889	133889.000
1900	1550	32362718	32362718.000	16034	16034.000
2400	1400	32362718	32362718.000	16579	16579.000
2250	400	32362718	32362718.000	14375	14375.000
1600	650	32362718	32362718.000	18427	18427.000
2150	1450	32362718	32362718.000	18129	18129.000
2150	500	32362718	32362718.000	17811	17811.000
2200	1550	32362718	32362718.000	20920	20920.000
2700	900	32362718	32362718.000	17547	17547.000
2450	300	32362718	32362718.000	20046	20046.000
2250	1300	32362718	32362718.000	14050	14050.000
1700	1400	32362718	32362718.000	16534	16534.000
2750	900	32362718	32362718.000	18063	18063.000
2100	200	32362718	32362718.000	22018	22018.000
2600	500	32362718	32362718.000	17771	17771.000
2800	1200	32362718	32362718.000	17074	17074.000
850	300	32362718	32362718.000	144651	144651.000
900	200	32362718	32362718.000	138121	138121.000
2400	100	32362718	32362718.000	16872	16872.000
2100	0	32362718	32362718.000	18720	18720.000
2700	1300	32362718	32362718.000	17972	17972.000
1850	100	32362718	32362718.000	21889	21889.000
1250	450	32362718	32362718.000	46922	46922.000
2450	200	32362718	32362718.000	17713	17713.000
900	550	32362718	32362718.000	136110	136110.000
950	650	32362718	32362718.000	141689	141689.000
2150	1000	32362718	32362718.000	15693	15693.000
1750	1300	32362718	32362718.000	21919	21919.000
2700	1500	32362718	32362718.000	16176	16176.000
1550	400	32362718	32362718.000	18965	18965.000
700	400	32362718	32362718.000	137276	137276.000
2500	900	32362718	32362718.000	18034	18034.000
1050	700	32362718	32362718.000	144032	144032.000
1950	600	32362718	32362718.000	19302	19302.000
1400	600	32362718	32362718.000	21252	21252.000
1900	1450	32362718	32362718.000	16612	16612.000
1000	100	32362718	32362718.000	141453	141453.000
2000	300	32362718	32362718.000	20031	20031.000
2350	1000	32362718	32362718.000	15983	15983.000
1350	750	32362718	32362718.000	26495	26495.000
1450	200	32362718	32362718.000	15879	15879.000
1600	0	32362718	32362718.000	16923	16923.000
2000	900	32362718	32362718.000	19171	19171.000
2200	1500	32362718	32362718.000	16876	16876.000
2650	0	32362718	32362718.000	17428	17428.000
1450	1100	32362718	32362718.000	22198	22198.000
1500	200	32362718	32362718.000	15831	15831.000
700	450	32362718	32362718.000	140477	140477.000
1250	950	32362718	32362718.000	49343	49343.000
2250	500	32362718	32362718.000	18085	18085.000
1500	1275	32362718	32362718.000	16639	16639.000
1500	800	32362718	32362718.000	19800	19800.000
2050	0	32362718	32362718.000	21215	21215.000
1500	1100	32362718	32362718.000	18255	18255.000
2650	1200	32362718	32362718.000	17884	17884.000
1950	1350	32362718	32362718.000	20293	20293.000
2200	1600	32362718	32362718.000	20591	20591.000
1950	1050	32362718	32362718.000	16502	16502.000
1150	800	32362718	32362718.000	90148	90148.000
1800	1100	32362718	32362718.000	19951	19951.000
1350	700	32362718	32362718.000	27182	27182.000
1650	1250	32362718	32362718.000	16546	16546.000
2450	100	32362718	32362718.000	15371	15371.000
1150	925	32362718	32362718.000	94615	94615.000
1100	600	32362718	32362718.000	118989	118989.000
1500	500	32362718	32362718.000	16437	16437.000
2700	1200	32362718	32362718.000	22075	22075.000
1600	1150	32362718	32362718.000	20316	20316.000
1150	550	32362718	32362718.000	97075	97075.000
2450	800	32362718	32362718.000	19251	19251.000
900	350	32362718	32362718.000	133857	133857.000
2500	800	32362718	32362718.000	18993	18993.000
1200	550	32362718	32362718.000	65987	65987.000
2300	1500	32362718	32362718.000	17649	17649.000
2050	700	32362718	32362718.000	19307	19307.000
1250	550	32362718	32362718.000	47766	47766.000
2400	500	32362718	32362718.000	18225	18225.000
1950	1300	32362718	32362718.000	19529	19529.000
2050	1150	32362718	32362718.000	20300	20300.000
1550	300	32362718	32362718.000	18562	18562.000
1600	400	32362718	32362718.000	18942	18942.000
1950	400	32362718	32362718.000	19628	19628.000
1700	1475	32362718	32362718.000	19349	19349.000
1000	700	32362718	32362718.000	145770	145770.000
1350	1100	32362718	32362718.000	28860	28860.000
1800	1200	32362718	32362718.000	21375	21375.000
2500	500	32362718	32362718.000	17182	17182.000
1350	200	32362718	32362718.000	27157	27157.000
1700	200	32362718	32362718.000	21207	21207.000
1650	600	32362718	32362718.000	20431	20431.000
1600	500	32362718	32362718.000	20242	20242.000
1200	450	32362718	32362718.000	69731	69731.000
750	525	32362718	32362718.000	130285	130285.000
2400	1100	32362718	32362718.000	19124	19124.000
1700	1100	32362718	32362718.000	18406	18406.000
1750	200	32362718	32362718.000	19942	19942.000
1950	500	32362718	32362718.000	15641	15641.000
1150	900	32362718	32362718.000	96772	96772.000
2500	300	32362718	32362718.000	17189	17189.000
2000	1400	32362718	32362718.000	20201	20201.000
2750	500	32362718	32362718.000	11487	11487.000
1050	825	32362718	32362718.000	150061	150061.000
1650	800	32362718	32362718.000	20577	20577.000
950	450	32362718	32362718.000	145681	145681.000
800	500	32362718	32362718.000	152199	152199.000
1850	800	32362718	32362718.000	18406	18406.000
1000	200	32362718	32362718.000	143544	143544.000
2500	700	32362718	32362718.000	20557	20557.000
1200	975	32362718	32362718.000	65970	65970.000
2500	1400	32362718	32362718.000	18567	18567.000
750	500	32362718	32362718.000	147318	147318.000
1400	800	32362718	32362718.000	21192	21192.000
2050	100	32362718	32362718.000	18162	18162.000
1450	1225	32362718	32362718.000	16178	16178.000
1400	500	32362718	32362718.000	20843	20843.000
2250	200	32362718	32362718.000	18316	18316.000
2000	600	32362718	32362718.000	20399	20399.000
1950	0	32362718	32362718.000	18856	18856.000
1550	1150	32362718	32362718.000	16125	16125.000
1900	0	32362718	32362718.000	17419	17419.000
1950	1000	32362718	32362718.000	17510	17510.000
1850	1100	32362718	32362718.000	17315	17315.000
2450	400	32362718	32362718.000	16436	16436.000
2800	1400	32362718	32362718.000	16322	16322.000
2600	1000	32362718	32362718.000	20610	20610.000
2750	1300	32362718	32362718.000	16115	16115.000
2150	100	32362718	32362718.000	18687	18687.000
1150	850	32362718	32362718.000	92461	92461.000
2400	1200	32362718	32362718.000	18858	18858.000
2750	300	32362718	32362718.000	15274	15274.000
1350	850	32362718	32362718.000	23404	23404.000
1950	1550	32362718	32362718.000	18932	18932.000
1750	300	32362718	32362718.000	20096	20096.000
2100	500	32362718	32362718.000	19684	19684.000
2800	800	32362718	32362718.000	21782	21782.000
1600	1100	32362718	32362718.000	20667	20667.000
2550	100	32362718	32362718.000	17210	17210.000
1850	1550	32362718	32362718.000	23660	23660.000
1450	0	32362718	32362718.000	19803	19803.000
2600	1300	32362718	32362718.000	17400	17400.000
2450	1600	32362718	32362718.000	20355	20355.000
1750	1525	32362718	32362718.000	20797	20797.000
2500	0	32362718	32362718.000	16106	16106.000
2400	1600	32362718	32362718.000	14870	14870.000
1450	900	32362718	32362718.000	18541	18541.000
1900	1100	32362718	32362718.000	20191	20191.000
1450	1200	32362718	32362718.000	16201	16201.000
1100	300	32362718	32362718.000	134248	134248.000
1350	800	32362718	32362718.000	26326	26326.000
1550	1325	32362718	32362718.000	19612	19612.000
2700	600	32362718	32362718.000	21704	21704.000
2350	300	32362718	32362718.000	17410	17410.000
1900	100	32362718	32362718.000	19032	19032.000
1850	900	32362718	32362718.000	17289	17289.000
2450	1550	32362718	32362718.000	17630	17630.000
2350	1300	32362718	32362718.000	19923	19923.000
1550	1250	32362718	32362718.000	18043	18043.000
1850	300	32362718	32362718.000	14778	14778.000
1300	400	32362718	32362718.000	35852	35852.000
2800	1600	32362718	32362718.000	19002	19002.000
2250	900	32362718	32362718.000	19120	19120.000
1500	400	32362718	32362718.000	20588	20588.000
1800	300	32362718	32362718.000	21498	21498.000
1500	700	32362718	32362718.000	22617	22617.000
2550	800	32362718	32362718.000	20486	20486.000
2550	1550	32362718	32362718.000	17814	17814.000
1550	1050	32362718	32362718.000	20762	20762.000
1750	1000	32362718	32362718.000	20418	20418.000
1650	850	32362718	32362718.000	15176	15176.000
900	450	32362718	32362718.000	145289	145289.000
850	350	32362718	32362718.000	136452	136452.000
1200	300	32362718	32362718.000	68530	68530.000
1600	200	32362718	32362718.000	21615	21615.000
2700	400	32362718	32362718.000	19363	19363.000
1250	850	32362718	32362718.000	48094	48094.000
2550	200	32362718	32362718.000	14656	14656.000
1300	450	32362718	32362718.000	33422	33422.000
1250	900	32362718	32362718.000	43490	43490.000
1650	1200	32362718	32362718.000	18015	18015.000
1500	750	32362718	32362718.000	16956	16956.000
1500	650	32362718	32362718.000	16316	16316.000
2750	1400	32362718	32362718.000	14273	14273.000
1400	1150	32362718	32362718.000	21028	21028.000
2300	1600	32362718	32362718.000	19713	19713.000
2350	700	32362718	32362718.000	20066	20066.000
2650	400	32362718	32362718.000	15864	15864.000
2100	600	32362718	32362718.000	17186	17186.000
1400	550	32362718	32362718.000	18877	18877.000
2100	1000	32362718	32362718.000	14643	14643.000
2500	600	32362718	32362718.000	16891	16891.000
2750	1000	32362718	32362718.000	13713	13713.000
1100	850	32362718	32362718.000	129224	129224.000
1850	1150	32362718	32362718.000	16753	16753.000
2350	500	32362718	32362718.000	21090	21090.000
650	425	32362718	32362718.000	222655	222655.000
1450	1150	32362718	32362718.000	23077	23077.000
1650	400	32362718	32362718.000	19006	19006.000
950	300	32362718	32362718.000	137816	137816.000
2200	400	32362718	32362718.000	16534	16534.000
2400	600	32362718	32362718.000	16556	16556.000
600	100	32362718	32362718.000	340200	340200.000
1750	850	32362718	32362718.000	18720	18720.000
1900	400	32362718	32362718.000	20773	20773.000
1800	1350	32362718	32362718.000	20254	20254.000
2100	300	32362718	32362718.000	18351	18351.000
2800	0	32362718	32362718.000	18638	18638.000
1150	300	32362718	32362718.000	93609	93609.000
1400	1100	32362718	32362718.000	21011	21011.000
1650	900	32362718	32362718.000	20740	20740.000
2750	1500	32362718	32362718.000	13283	13283.000
1200	800	32362718	32362718.000	63482	63482.000
700	475	32362718	32362718.000	135637	135637.000
1950	900	32362718	32362718.000	16674	16674.000
2750	100	32362718	32362718.000	18990	18990.000
1350	1050	32362718	32362718.000	25990	25990.000
1050	300	32362718	32362718.000	138140	138140.000
1750	1150	32362718	32362718.000	18493	18493.000
2750	600	32362718	32362718.000	15148	15148.000
1300	1050	32362718	32362718.000	33171	33171.000
1750	1450	32362718	32362718.000	20784	20784.000
2050	1500	32362718	32362718.000	18402	18402.000
1600	1350	32362718	32362718.000	23885	23885.000
2550	300	32362718	32362718.000	19952	19952.000
1600	1300	32362718	32362718.000	19680	19680.000
2150	0	32362718	32362718.000	18222	18222.000
850	625	32362718	32362718.000	137880	137880.000
1650	1300	32362718	32362718.000	17666	17666.000
2600	800	32362718	32362718.000	19963	19963.000
2200	900	32362718	32362718.000	17660	17660.000
950	700	32362718	32362718.000	144073	144073.000
2800	600	32362718	32362718.000	14147	14147.000
2800	1000	32362718	32362718.000	20411	20411.000
2400	1500	32362718	32362718.000	17765	17765.000
750	400	32362718	32362718.000	142708	142708.000
1200	100	32362718	32362718.000	65287	65287.000
1900	300	32362718	32362718.000	17886	17886.000
1800	1450	32362718	32362718.000	18059	18059.000
1900	500	32362718	32362718.000	17830	17830.000
1700	950	32362718	32362718.000	21664	21664.000
1300	200	32362718	32362718.000	33703	33703.000
2200	600	32362718	32362718.000	15486	15486.000
2000	1550	32362718	32362718.000	15919	15919.000
2300	1350	32362718	32362718.000	18151	18151.000
900	400	32362718	32362718.000	144277	144277.000
800	450	32362718	32362718.000	141053	141053.000
1650	0	32362718	32362718.000	19533	19533.000
1400	0	32362718	32362718.000	15183	15183.000
1000	450	32362718	32362718.000	139944	139944.000
2150	1300	32362718	32362718.000	17860	17860.000
1600	750	32362718	32362718.000	16108	16108.000
1550	1300	32362718	32362718.000	17607	17607.000
1350	650	32362718	32362718.000	27332	27332.000
2750	200	32362718	32362718.000	17005	17005.000
1200	950	32362718	32362718.000	65042	65042.000
2100	1500	32362718	32362718.000	15799	15799.000
1400	450	32362718	32362718.000	21058	21058.000
1900	1000	32362718	32362718.000	18093	18093.000
2050	900	32362718	32362718.000	19812	19812.000
600	350	32362718	32362718.000	361697	361697.000
2050	1350	32362718	32362718.000	20607	20607.000
2550	1300	32362718	32362718.000	17051	17051.000
2500	100	32362718	32362718.000	15533	15533.000
1100	550	32362718	32362718.000	131238	131238.000
1700	1200	32362718	32362718.000	17758	17758.000
2700	200	32362718	32362718.000	17380	17380.000
1850	200	32362718	32362718.000	17717	17717.000
1100	100	32362718	32362718.000	124587	124587.000
1300	550	32362718	32362718.000	34439	34439.000
950	550	32362718	32362718.000	143645	143645.000
1750	1200	32362718	32362718.000	19671	19671.000
2800	1500	32362718	32362718.000	17284	17284.000
2000	1150	32362718	32362718.000	20997	20997.000
2250	1250	32362718	32362718.000	17620	17620.000
1250	400	32362718	32362718.000	49025	49025.000
2200	1000	32362718	32362718.000	18813	18813.000
950	600	32362718	32362718.000	143475	143475.000
750	350	32362718	32362718.000	138916	138916.000
1450	650	32362718	32362718.000	18228	18228.000
1500	950	32362718	32362718.000	17419	17419.000
2250	1500	32362718	32362718.000	22645	22645.000
1250	650	32362718	32362718.000	44739	44739.000
1450	750	32362718	32362718.000	22841	22841.000
1000	775	32362718	32362718.000	134136	134136.000
1450	950	32362718	32362718.000	17549	17549.000
2550	1100	32362718	32362718.000	19669	19669.000
900	650	32362718	32362718.000	145344	145344.000
2550	1000	32362718	32362718.000	16333	16333.000
2600	1100	32362718	32362718.000	18972	18972.000
2500	1600	32362718	32362718.000	17141	17141.000
2250	1200	32362718	32362718.000	22575	22575.000
2000	1300	32362718	32362718.000	19739	19739.000
1650	100	32362718	32362718.000	19250	19250.000
1050	450	32362718	32362718.000	146041	146041.000
2150	1250	32362718	32362718.000	17873	17873.000
2350	800	32362718	32362718.000	17251	17251.000
1550	750	32362718	32362718.000	16351	16351.000
2000	1500	32362718	32362718.000	19765	19765.000
1600	1250	32362718	32362718.000	20408	20408.000
950	500	32362718	32362718.000	143413	143413.000
1300	900	32362718	32362718.000	34735	34735.000
650	400	32362718	32362718.000	216239	216239.000
1900	600	32362718	32362718.000	14581	14581.000
2400	1300	32362718	32362718.000	18236	18236.000
1850	1500	32362718	32362718.000	16049	16049.000
1250	100	32362718	32362718.000	46529	46529.000
850	400	32362718	32362718.000	139858	139858.000
850	550	32362718	32362718.000	142218	142218.000
1300	1000	32362718	32362718.000	37454	37454.000
2100	100	32362718	32362718.000	16799	16799.000
1700	700	32362718	32362718.000	18053	18053.000
2250	100	32362718	32362718.000	14903	14903.000
1750	1350	32362718	32362718.000	19678	19678.000
2500	400	32362718	32362718.000	16956	16956.000
2650	1000	32362718	32362718.000	14510	14510.000
1550	650	32362718	32362718.000	18530	18530.000
1900	1300	32362718	32362718.000	19198	19198.000
600	300	32362718	32362718.000	361205	361205.000
1200	750	32362718	32362718.000	64853	64853.000
1700	400	32362718	32362718.000	18823	18823.000
2750	0	32362718	32362718.000	18947	18947.000
1000	750	32362718	32362718.000	138849	138849.000
1400	200	32362718	32362718.000	20912	20912.000
2100	1400	32362718	32362718.000	18521	18521.000
2350	900	32362718	32362718.000	16784	16784.000
1450	300	32362718	32362718.000	19963	19963.000
1450	600	32362718	32362718.000	18771	18771.000
2400	400	32362718	32362718.000	19034	19034.000
2650	100	32362718	32362718.000	18034	18034.000
1500	0	32362718	32362718.000	18526	18526.000
800	350	32362718	32362718.000	141337	141337.000
1500	300	32362718	32362718.000	20146	20146.000
1900	200	32362718	32362718.000	20106	20106.000
2250	700	32362718	32362718.000	20154	20154.000
2050	200	32362718	32362718.000	21966	21966.000
1700	0	32362718	32362718.000	17854	17854.000
1500	900	32362718	32362718.000	15234	15234.000
1750	600	32362718	32362718.000	19172	19172.000
2650	300	32362718	32362718.000	19141	19141.000
950	400	32362718	32362718.000	132774	132774.000
2100	1450	32362718	32362718.000	18302	18302.000
1800	1000	32362718	32362718.000	16941	16941.000
2700	800	32362718	32362718.000	18750	18750.000
2150	1550	32362718	32362718.000	16910	16910.000
2600	400	32362718	32362718.000	19502	19502.000
1800	100	32362718	32362718.000	18746	18746.000
2800	1100	32362718	32362718.000	20708	20708.000
1700	1300	32362718	32362718.000	20074	20074.000
2450	1100	32362718	32362718.000	16953	16953.000
1900	900	32362718	32362718.000	19642	19642.000
2500	1000	32362718	32362718.000	18445	18445.000
2400	300	32362718	32362718.000	18555	18555.000
1000	0	32362718	32362718.000	139652	139652.000
1750	400	32362718	32362718.000	20304	20304.000
2100	1550	32362718	32362718.000	16327	16327.000
1950	1500	32362718	32362718.000	21309	21309.000
1200	0	32362718	32362718.000	68555	68555.000
2450	1300	32362718	32362718.000	20564	20564.000
1050	650	32362718	32362718.000	138799	138799.000
2250	0	32362718	32362718.000	16796	16796.000
2600	200	32362718	32362718.000	20480	20480.000
1200	600	32362718	32362718.000	67326	67326.000
2150	1150	32362718	32362718.000	18782	18782.000
2150	1400	32362718	32362718.000	19610	19610.000
2300	600	32362718	32362718.000	18604	18604.000
2700	300	32362718	32362718.000	19170	19170.000
2650	500	32362718	32362718.000	16227	16227.000
2650	600	32362718	32362718.000	18172	18172.000
2350	100	32362718	32362718.000	16940	16940.000
2800	1300	32362718	32362718.000	14820	14820.000
1700	1050	32362718	32362718.000	21568	21568.000
2700	500	32362718	32362718.000	17608	17608.000
1750	700	32362718	32362718.000	23494	23494.000
2700	700	32362718	32362718.000	14510	14510.000
1650	300	32362718	32362718.000	20399	20399.000
1900	800	32362718	32362718.000	15189	15189.000
1700	100	32362718	32362718.000	14464	14464.000
1550	550	32362718	32362718.000	17862	17862.000
800	550	32362718	32362718.000	134346	134346.000
800	400	32362718	32362718.000	138031	138031.000
1800	850	32362718	32362718.000	18055	18055.000
800	100	32362718	32362718.000	139706	139706.000
1850	400	32362718	32362718.000	17171	17171.000
1600	1000	32362718	32362718.000	18146	18146.000
1600	700	32362718	32362718.000	15445	15445.000
1950	1100	32362718	32362718.000	17919	17919.000
1400	1000	32362718	32362718.000	19880	19880.000
1550	1200	32362718	32362718.000	16888	16888.000
1800	1550	32362718	32362718.000	16405	16405.000
2550	1500	32362718	32362718.000	21306	21306.000
1400	400	32362718	32362718.000	18151	18151.000
1950	1250	32362718	32362718.000	18214	18214.000
1950	200	32362718	32362718.000	15713	15713.000
2300	1000	32362718	32362718.000	21858	21858.000
2300	900	32362718	32362718.000	14427	14427.000
2050	1100	32362718	32362718.000	19244	19244.000
2250	1600	32362718	32362718.000	18803	18803.000
2050	1550	32362718	32362718.000	15199	15199.000
2250	1350	32362718	32362718.000	16248	16248.000
2350	200	32362718	32362718.000	17808	17808.000
1700	800	32362718	32362718.000	24029	24029.000
1750	1400	32362718	32362718.000	21651	21651.000
2800	700	32362718	32362718.000	17080	17080.000
2650	800	32362718	32362718.000	17171	17171.000
2600	300	32362718	32362718.000	17760	17760.000
2550	1200	32362718	32362718.000	15756	15756.000
2000	1600	32362718	32362718.000	20725	20725.000
1700	1000	32362718	32362718.000	15402	15402.000
1250	800	32362718	32362718.000	46224	46224.000
2200	1250	32362718	32362718.000	22778	22778.000
1200	500	32362718	32362718.000	69399	69399.000
1900	700	32362718	32362718.000	15904	15904.000
1700	1150	32362718	32362718.000	16430	16430.000
1550	950	32362718	32362718.000	18013	18013.000
1300	500	32362718	32362718.000	36354	36354.000
1450	100	32362718	32362718.000	18805	18805.000
1750	500	32362718	32362718.000	19497	19497.000
1450	400	32362718	32362718.000	18747	18747.000
2450	500	32362718	32362718.000	15538	15538.000
1850	1250	32362718	32362718.000	19267	19267.000
2500	1500	32362718	32362718.000	23306	23306.000
2350	0	32362718	32362718.000	20151	20151.000
2250	800	32362718	32362718.000	18345	18345.000
700	200	32362718	32362718.000	140191	140191.000
2550	1400	32362718	32362718.000	17730	17730.000
2000	1200	32362718	32362718.000	19448	19448.000
2500	1300	32362718	32362718.000	14421	14421.000
2600	700	32362718	32362718.000	18578	18578.000
1000	300	32362718	32362718.000	149911	149911.000
2100	1250	32362718	32362718.000	16591	16591.000
1650	750	32362718	32362718.000	18964	18964.000
1550	1100	32362718	32362718.000	16056	16056.000
1600	1200	32362718	32362718.000	22837	22837.000
2200	1100	32362718	32362718.000	16529	16529.000
1750	1500	32362718	32362718.000	17725	17725.000
2050	1050	32362718	32362718.000	18386	18386.000
2150	1350	32362718	32362718.000	15849	15849.000
2350	1600	32362718	32362718.000	21011	21011.000
1050	600	32362718	32362718.000	151491	151491.000
1750	1250	32362718	32362718.000	19877	19877.000
1200	650	32362718	32362718.000	64584	64584.000
850	450	32362718	32362718.000	147888	147888.000
850	600	32362718	32362718.000	139480	139480.000
1250	350	32362718	32362718.000	51933	51933.000
650	300	32362718	32362718.000	205201	205201.000
1700	300	32362718	32362718.000	20074	20074.000
1650	700	32362718	32362718.000	18270	18270.000
2550	700	32362718	32362718.000	19167	19167.000
1150	600	32362718	32362718.000	93553	93553.000
700	300	32362718	32362718.000	138224	138224.000
1500	550	32362718	32362718.000	19063	19063.000
1100	0	32362718	32362718.000	136342	136342.000
2350	1100	32362718	32362718.000	17471	17471.000
1700	1350	32362718	32362718.000	18305	18305.000
1550	850	32362718	32362718.000	17222	17222.000
1400	1050	32362718	32362718.000	18689	18689.000
1950	950	32362718	32362718.000	23859	23859.000
1400	750	32362718	32362718.000	21544	21544.000
2100	700	32362718	32362718.000	17971	17971.000
1100	350	32362718	32362718.000	126232	126232.000
2150	1100	32362718	32362718.000	17444	17444.000
1850	1350	32362718	32362718.000	19623	19623.000
2550	1600	32362718	32362718.000	19228	19228.000
1800	900	32362718	32362718.000	19341	19341.000
2600	600	32362718	32362718.000	17544	17544.000
700	350	32362718	32362718.000	141871	141871.000
1150	750	32362718	32362718.000	94930	94930.000
2300	400	32362718	32362718.000	17499	17499.000
1800	0	32362718	32362718.000	18284	18284.000
1250	500	32362718	32362718.000	44599	44599.000
800	300	32362718	32362718.000	138221	138221.000
2450	1200	32362718	32362718.000	18205	18205.000
2100	1100	32362718	32362718.000	18332	18332.000
1700	1250	32362718	32362718.000	16938	16938.000
1000	500	32362718	32362718.000	143157	143157.000
1050	750	32362718	32362718.000	140426	140426.000
1800	1250	32362718	32362718.000	17385	17385.000
1900	1400	32362718	32362718.000	14219	14219.000
2800	900	32362718	32362718.000	20826	20826.000
2650	700	32362718	32362718.000	19569	19569.000
2150	800	32362718	32362718.000	18562	18562.000
2150	400	32362718	32362718.000	17658	17658.000
1150	700	32362718	32362718.000	94469	94469.000
1800	950	32362718	32362718.000	17496	17496.000
2300	1200	32362718	32362718.000	17421	17421.000
2650	900	32362718	32362718.000	17203	17203.000
2700	100	32362718	32362718.000	14905	14905.000
2150	600	32362718	32362718.000	20095	20095.000
2600	900	32362718	32362718.000	15291	15291.000
2050	400	32362718	32362718.000	20132	20132.000
2800	200	32362718	32362718.000	17371	17371.000
2000	1450	32362718	32362718.000	22625	22625.000
2200	0	32362718	32362718.000	17387	17387.000
2050	1000	32362718	32362718.000	18694	18694.000
1750	1050	32362718	32362718.000	22403	22403.000
2350	400	32362718	32362718.000	18816	18816.000
2050	1300	32362718	32362718.000	20839	20839.000
1350	350	32362718	32362718.000	28100	28100.000
1300	650	32362718	32362718.000	36924	36924.000
2200	300	32362718	32362718.000	18503	18503.000
1100	400	32362718	32362718.000	127290	127290.000
2650	1500	32362718	32362718.000	16473	16473.000
1650	1000	32362718	32362718.000	16667	16667.000
1800	1050	32362718	32362718.000	18930	18930.000
2650	1300	32362718	32362718.000	17862	17862.000
1800	400	32362718	32362718.000	18181	18181.000
750	300	32362718	32362718.000	145192	145192.000
2800	300	32362718	32362718.000	16534	16534.000
900	300	32362718	32362718.000	135296	135296.000
1350	300	32362718	32362718.000	28702	28702.000
2200	800	32362718	32362718.000	18269	18269.000
1650	950	32362718	32362718.000	16736	16736.000
2400	900	32362718	32362718.000	18675	18675.000
2150	700	32362718	32362718.000	19069	19069.000
1000	650	32362718	32362718.000	148146	148146.000
1800	500	32362718	32362718.000	19445	19445.000
2300	700	32362718	32362718.000	17162	17162.000
2000	400	32362718	32362718.000	16992	16992.000
2450	1500	32362718	32362718.000	16036	16036.000
1400	1175	32362718	32362718.000	21097	21097.000
700	0	32362718	32362718.000	133266	133266.000
1400	950	32362718	32362718.000	18984	18984.000
2050	500	32362718	32362718.000	21078	21078.000
1750	0	32362718	32362718.000	17347	17347.000
1350	1000	32362718	32362718.000	26659	26659.000
1550	700	32362718	32362718.000	16110	16110.000
1200	400	32362718	32362718.000	62668	62668.000
2300	1400	32362718	32362718.000	22337	22337.000
2400	1000	32362718	32362718.000	17429	17429.000
1850	1600	32362718	32362718.000	19432	19432.000
1750	950	32362718	32362718.000	22945	22945.000
2050	1450	32362718	32362718.000	18020	18020.000
1850	1000	32362718	32362718.000	18926	18926.000
2000	800	32362718	32362718.000	23273	23273.000
2300	1550	32362718	32362718.000	20882	20882.000
800	575	32362718	32362718.000	140578	140578.000
1850	1450	32362718	32362718.000	20097	20097.000
2800	500	32362718	32362718.000	15661	15661.000
2450	1450	32362718	32362718.000	19108	19108.000
1100	500	32362718	32362718.000	123730	123730.000
2250	1450	32362718	32362718.000	20278	20278.000
2200	1200	32362718	32362718.000	19840	19840.000
1700	750	32362718	32362718.000	18539	18539.000
1250	0	32362718	32362718.000	46077	46077.000
1250	600	32362718	32362718.000	47906	47906.000
1500	1050	32362718	32362718.000	19161	19161.000
1450	450	32362718	32362718.000	17528	17528.000
2650	1400	32362718	32362718.000	15397	15397.000
2400	200	32362718	32362718.000	17766	17766.000
2550	600	32362718	32362718.000	18788	18788.000
2450	1400	32362718	32362718.000	18616	18616.000
1350	550	32362718	32362718.000	31456	31456.000
2000	1250	32362718	32362718.000	16354	16354.000
2300	0	32362718	32362718.000	19067	19067.000
1300	1075	32362718	32362718.000	40841	40841.000
1550	100	32362718	32362718.000	17363	17363.000
1000	550	32362718	32362718.000	137546	137546.000
2750	800	32362718	32362718.000	21992	21992.000
1800	600	32362718	32362718.000	19341	19341.000
1700	1450	32362718	32362718.000	15834	15834.000
1900	1600	32362718	32362718.000	19584	19584.000
2200	1350	32362718	32362718.000	19513	19513.000
1800	1500	32362718	32362718.000	17882	17882.000
2450	900	32362718	32362718.000	24398	24398.000
1550	600	32362718	32362718.000	15269	15269.000
1050	350	32362718	32362718.000	145139	145139.000
2150	300	32362718	32362718.000	20130	20130.000
1250	750	32362718	32362718.000	51046	51046.000
850	500	32362718	32362718.000	136937	136937.000
2100	800	32362718	32362718.000	18377	18377.000
600	0	32362718	32362718.000	357459	357459.000
2400	700	32362718	32362718.000	13008	13008.000
1850	500	32362718	32362718.000	19736	19736.000
1800	1150	32362718	32362718.000	17798	17798.000
1050	800	32362718	32362718.000	141583	141583.000
1850	950	32362718	32362718.000	19051	19051.000
2350	1350	32362718	32362718.000	18875	18875.000
2300	1300	32362718	32362718.000	20698	20698.000
1750	800	32362718	32362718.000	19943	19943.000
2300	100	32362718	32362718.000	16421	16421.000
2700	1600	32362718	32362718.000	19023	19023.000
1400	700	32362718	32362718.000	18474	18474.000
1200	200	32362718	32362718.000	70258	70258.000
1600	850	32362718	32362718.000	15243	15243.000
1400	100	32362718	32362718.000	18031	18031.000
1350	500	32362718	32362718.000	30097	30097.000
800	0	32362718	32362718.000	138057	138057.000
2000	500	32362718	32362718.000	15888	15888.000
2350	600	32362718	32362718.000	16221	16221.000
1900	1500	32362718	32362718.000	20136	20136.000
2750	1200	32362718	32362718.000	16031	16031.000
1450	700	32362718	32362718.000	18639	18639.000
1950	1600	32362718	32362718.000	14786	14786.000
1450	1000	32362718	32362718.000	23593	23593.000
1500	100	32362718	32362718.000	14560	14560.000
1300	950	32362718	32362718.000	38138	38138.000
1750	1100	32362718	32362718.000	19807	19807.000
1250	1025	32362718	32362718.000	44111	44111.000
1500	1000	32362718	32362718.000	19474	19474.000
2750	400	32362718	32362718.000	21260	21260.000
1600	1375	32362718	32362718.000	16306	16306.000
1100	650	32362718	32362718.000	135267	135267.000
1650	650	32362718	32362718.000	18643	18643.000
2600	1500	32362718	32362718.000	19557	19557.000
1100	200	32362718	32362718.000	120585	120585.000
1350	900	32362718	32362718.000	28399	28399.000
2350	1450	32362718	32362718.000	16200	16200.000
2750	1600	32362718	32362718.000	17767	17767.000
2250	1000	32362718	32362718.000	20235	20235.000
2450	600	32362718	32362718.000	17316	17316.000
1950	1150	32362718	32362718.000	17081	17081.000
2700	1400	32362718	32362718.000	15417	15417.000
1750	900	32362718	32362718.000	19426	19426.000
2300	500	32362718	32362718.000	19771	19771.000
2050	600	32362718	32362718.000	19657	19657.000
1400	900	32362718	32362718.000	18478	18478.000
1400	850	32362718	32362718.000	19728	19728.000
1350	100	32362718	32362718.000	29840	29840.000
1750	100	32362718	32362718.000	17924	17924.000
1200	350	32362718	32362718.000	65814	65814.000
1300	0	32362718	32362718.000	37070	37070.000
1950	300	32362718	32362718.000	16201	16201.000
1950	1200	32362718	32362718.000	14619	14619.000
1800	700	32362718	32362718.000	18503	18503.000
1650	200	32362718	32362718.000	17887	17887.000
900	0	32362718	32362718.000	140747	140747.000
2600	100	32362718	32362718.000	19316	19316.000
900	100	32362718	32362718.000	151130	151130.000
1650	1100	32362718	32362718.000	18980	18980.000
2550	0	32362718	32362718.000	15761	15761.000
1250	1000	32362718	32362718.000	50574	50574.000
2000	1000	32362718	32362718.000	18711	18711.000
2200	1400	32362718	32362718.000	19237	19237.000
2350	1500	32362718	32362718.000	16124	16124.000
2350	1550	32362718	32362718.000	16646	16646.000
1850	1200	32362718	32362718.000	19519	19519.000
1700	500	32362718	32362718.000	16728	16728.000
1100	700	32362718	32362718.000	127159	127159.000
2300	200	32362718	32362718.000	20690	20690.000
2350	1200	32362718	32362718.000	18519	18519.000
2600	1600	32362718	32362718.000	20544	20544.000
650	350	32362718	32362718.000	212481	212481.000
1100	750	32362718	32362718.000	132701	132701.000
2200	200	32362718	32362718.000	17149	17149.000
2250	600	32362718	32362718.000	17648	17648.000
2400	1450	32362718	32362718.000	17894	17894.000
1850	0	32362718	32362718.000	20850	20850.000
2000	100	32362718	32362718.000	21256	21256.000
1650	1050	32362718	32362718.000	21037	21037.000
1900	950	32362718	32362718.000	20788	20788.000
1000	350	32362718	32362718.000	141334	141334.000
2200	500	32362718	32362718.000	16436	16436.000
2050	300	32362718	32362718.000	16846	16846.000
1800	1575	32362718	32362718.000	18290	18290.000
1400	300	32362718	32362718.000	22861	22861.000
